Archivo de aceleraci�n parte de la Red Nacional de Aceler�grafos (RENAC) Ecuador

Evento: 201604162358
Fecha del evento UTM (aammdd):                  2016    4   16
Hora del registro UTM (hhmmss): 23   58 45,00
Estaci�n:                                      APED
Componente:                                        N
Frecuencia de muestreo (Hz):            1,000000e+02
Unidades: cm/s^2
_____________________________________________
387,7261 565,8752 -507,1472 -409,5527 -795,6786
362,9873 488,7988 -701,2065 -531,1613 207,7471
580,8469 12,1934 -415,5704 -757,9873 220,2062
-491,5545 -332,7266 -517,5109 -293,2762 -426,8579
-773,2026 -59,7009 110,5417 -792,0463 -83,3211
347,8193 -43,5912 -318,1557 -290,8074 -5,8047
350,0847 -259,5732 62,8945 41,6402 -392,404
68,3619 172,3639 -484,4993 51,4106 235,6092
-391,5563 -164,9194 461,2764 675,2755 22,4809
230,5173 -500,2807 722,254 247,5548 -280,3405
321,3929 134,4087 236,0454 216,9623 560,1566
769,4717 -392,0012 -527,7187 346,5422 41,0721
35,8495 -700,0799 -296,5952 234,4856 647,2766
-735,4136 480,3985 -311,7414 -238,1941 261,6621
-200,8525 -187,809 -510,4066 117,9748 -559,2329
-141,4875 599,5193 515,9962 -551,5169 9,8388
-583,5409 -543,995 -373,1557 -365,8953 -142,1101
-589,862 719,7632 -630,1938 -536,2954 -429,0651
-704,909 322,2253 577,7662 708,8288 665,5387
-550,5727 -778,2483 511,4519 -574,1358 -15,6713
-725,8163 358,2859 -716,5656 64,4718 -574,6913
-545,9414 -493,3898 -696,2038 -287,0479 672,2797
-332,4427 435,9269 684,0373 182,3646 547,092
-385,8809 -264,7843 337,316 547,8811 514,0269
-409,6395 611,6035 198,8719 794,1145 -366,2966
-578,8257 61,8595 -98,2008 -252,0716 438,1203
-563,4187 -718,6063 -94,8694 300,0727 -439,1921
116,7551 782,1416 165,4506 -736,86 717,3236
-126,4285 -699,3765 -369,1433 673,647 -795,9943
-401,0701 -588,7455 -717,7623 -493,6859 -461,3302
190,0729 -480,9405 -4,8661 -132,4444 -221,9908
-73,162 442,2554 770,0959 246,1343 139,4715
536,5142 -343,0823 -455,2758 -779,5067 321,9234
220,3578 483,3257 40,3413 -149,0964 89,3645
-211,6051 62,839 52,9174 -222,174 -715,0542
-210,3895 436,0035 -170,04 117,9438 656,3558
408,0247 753,4215 113,8464 248,5973 689,9719
-168,7434 74,861 784,1924 -323,4296 417,0468
-512,3564 498,188 206,6314 -567,965 135,3399
-626,7976 313,7472 751,7818 725,6396 -441,2762
-387,7681 -195,1465 412,4729 371,7506 585,9101
660,2941 452,2134 -513,8437 617,5893 310,9265
111,6814 -10,5098 -788,6637 650,903 560,7048
-718,3912 274,0879 470,0301 515,2735 -210,1105
-737,3608 229,1703 510,3897 431,478 314,3073
-194,281 -761,2079 42,0776 -19,7232 -646,0515
-218,756 -600,5752 659,1444 -677,1374 629,0073
-290,7473 -635,3171 -701,8415 -398,7738 -146,7821
573,1158 -414,2323 -762,2918 -252,5396 164,3578
-275,7062 -687,0963 -311,1954 606,5782 -500,2816
-326,9656 789,4223 530,5485 110,6034 -581,388
-705,3098 627,7731 -595,6919 -36,5534 -686,6148
462,4252 388,0991 149,1246 173,9228 48,5027
214,4243 677,3095 204,2908 -129,491 504,5338
-518,0254 721,7649 -407,4907 70,1455 -726,7699
-70,8227 -21,5882 19,887 -138,9899 256,2733
70,8487 -26,9943 571,5224 6,9117 -634,2872
63,0431 -714,7397 673,572 -119,421 645,6229
731,0482 771,5819 236,6972 434,2805 573,9331
-407,5038 478,0622 -116,173 71,6216 128,9376
770,2834 430,3754 200,4985 110,1056 334,7364
291,2023 449,904 27,4685 -289,735 380,0697
-508,413 -740,699 744,23 17,1056 5,3411
110,8393 -254,0128 -674,8911 508,0292 -744,5198
-762,1129 -274,9342 92,9387 385,4945 509,1886
-708,0435 -399,5135 577,3706 -271,7619 56,2395
54,5609 115,4259 -542,1158 736,4634 504,9094
301,7774 74,2031 337,9031 -645,3916 296,4145
-195,1344 774,2365 175,6088 555,9221 345,9187
404,1944 785,0465 575,8222 -90,4023 -604,0749
-194,6031 -287,0812 -751,1162 -154,0682 558,236
655,8551 585,448 -6,9197 -676,5031 -645,0022
-412,5669 219,8416 -330,0251 -125,2265 212,6843
194,0646 -236,9362 -389,8999 -640,3766 -186,4886
-143,2498 -275,098 -768,9016 -724,8153 763,533
488,3033 207,1184 -86,7519 -417,3611 -152,4438
734,5714 -692,8743 471,5278 -442,2927 -494,7793
721,4672 431,0673 510,1666 157,3338 -792,1902
-71,9409 68,6766 520,7828 171,2592 -566,2544
-752,8605 63,2256 399,4584 -768,9279 773,5368
279,4595 93,1287 476,7185 204,6765 -666,5725
726,6915 -770,1678 12,2133 -312,2926 675,5186
-265,0631 111,5011 245,6183 -458,9445 355,6209
-497,25 522,945 -528,4037 755,1213 -423,0738
451,2084 286,2713 23,1845 -115,8863 -493,4901
-547,1549 -700,7767 -319,3443 677,5131 795,4227
751,279 -195,7626 -475,6972 -573,9792 -193,4938
642,4301 381,503 -790,0061 -275,42 -663,5794
15,3111 -603,3346 -398,3831 -491,7237 591,312
789,3588 495,1774 -591,027 731,8519 -299,6466
424,2054 262,0145 -507,841 -420,344 -735,7919
-520,7736 492,4852 181,197 731,685 -321,9246
247,0706 222,2274 183,6755 557,9715 181,6151
294,968 109,7745 -466,4788 341,2418 -637,6539
187,7968 116,0164 -783,0861 536,2407 -34,0779
179,3577 -598,9662 785,0917 23,0571 -188,7066
-160,5029 -511,7131 86,9252 -290,5761 -656,7632
340,0301 246,8763 -431,7908 -676,5278 408,5387
688,2777 -363,5188 489,1129 689,944 497,4292
578,7624 -66,6706 -56,4699 366,7271 -765,9727
686,7741 69,7321 144,164 249,1747 -283,3114
349,4687 653,8429 412,5335 -85,9537 -264,8338
-731,5017 392,0149 -151,2255 509,5337 -660,8915
532,4078 57,1605 -136,6842 572,0267 281,453
674,8586 162,8045 -473,3009 -163,8655 -185,9043
660,4843 -535,5135 -555,3412 -380,0295 -392,6762
253,1849 -700,9149 300,8679 -383,5654 789,37
762,9039 -247,385 597,1238 768,475 377,7741
536,3809 554,8952 65,5526 -40,4974 373,061
727,3952 686,2572 -299,3746 -732,5005 780,6353
-560,4489 519,9354 -412,9176 262,3329 -533,0771
-254,8495 -570,0325 128,3984 63,501 151,0899
-441,0078 -196,3149 -500,8926 141,703 389,2695
367,4704 85,3618 -731,887 -183,6178 -234,4049
490,1501 337,5607 -560,5609 61,787 -71,2845
684,5759 -505,3757 350,438 703,9608 671,1195
506,7201 352,7604 463,1569 -443,3215 61,3692
783,8979 -68,0827 772,75 464,0489 -230,6155
74,4996 120,8336 -15,2995 -548,0527 -72,1016
797,1461 -640,5656 -424,8571 621,2531 -403,6691
394,485 338,5267 583,2833 724,2007 -721,5009
-522,3156 783,3271 545,8723 735,7778 -646,4723
-768,1952 313,9382 -47,7006 -502,9231 -564,2061
769,5294 -360,5482 -553,2917 553,5486 622,7589
113,1744 449,4803 -705,1816 96,3789 -209,8025
81,0696 222,2574 108,0552 443,1862 -725,4937
606,7616 -8,9292 -785,3047 -524,3413 140,3705
-717,2123 441,6321 484,1441 -191,2081 702,3846
-281,9203 -338,8652 784,9112 125,225 406,9362
-229,9316 572,0978 -280,8446 -583,3217 -530,0566
-695,7944 674,9016 -135,5988 646,1631 -331,0955
-652,3959 482,2675 490,5147 758,4101 -375,5861
427,3161 253,7405 168,3487 684,4291 -268,6977
-104,0797 651,5357 -467,4752 -604,4124 416,9181
-373,8809 -267,5316 -724,8872 -455,0344 -49,5706
784,2696 -244,4811 413,1021 -663,897 -682,4783
11,6434 -710,2381 -44,5249 -592,3767 694,3224
112,9241 -77,7277 -596,4134 -298,838 -755,7256
-619,9781 -146,5845 -148,434 -476,9437 -728,9853
-590,4329 300,2019 529,6948 -501,091 -425,7485
-295,0125 381,1516 -128,3089 -518,5721 536,6194
-97,7504 -32,0689 234,6424 494,4426 -518,1837
666,0642 -247,6217 -548,4177 52,898 -570,0242
-602,6134 366,9695 -29,3413 63,2021 -526,5622
196,4623 -726,2449 300,4604 -756,3959 317,2208
-71,4776 606,6408 115,9276 -77,2248 449,5554
-503,8877 -325,1734 -85,1625 717,3268 398,0833
360,8937 -626,5665 689,5362 -319,8341 95,8359
255,7439 725,3498 277,1991 -710,17 -452,8763
-388,4585 374,9789 -427,3864 677,8718 -400,3122
-382,88 777,2071 161,748 -619,2744 398,1797
-788,0988 491,5583 -474,1481 -721,9654 -46,0298
-591,4038 -763,4219 -136,5268 -265,5068 -262,7463
648,77 661,1467 -658,8118 -27,6813 -66,0091
264,1121 238,0953 -186,7666 277,3884 637,8377
-64,6614 660,7303 367,4114 -47,1924 -796,9591
536,3451 498,5879 353,1585 -4,0828 -645,5845
388,9875 -445,9946 596,3639 530,5635 -510,5045
-621,3303 676,2429 738,7585 646,6705 -399,5588
772,0017 -470,7093 232,693 745,329 -318,988
-137,5735 696,2621 625,3285 725,6235 407,605
-583,5924 66,3144 46,9801 -11,6972 314,2812
-198,4813 -289,6089 157,9256 -485,718 -535,1411
-33,4556 -458,076 -760,2765 -303,6385 614,3736
431,385 -262,123 -338,4918 427,1679 237,8508
-552,8786 428,2757 -652,9108 -622,5988 165,397
-147,2225 -607,9805 469,4029 -602,3627 36,7441
-574,5092 764,4279 495,6313 438,7655 -276,763
554,7822 -377,4371 281,9526 7,3049 332,1344
705,676 -525,046 -52,2758 -417,7594 721,0649
-268,7522 -443,8784 180,3584 164,7724 541,0092
713,0075 293,2725 344,8351 274,8477 -482,2024
66,1592 225,4895 -266,6858 -318,7844 560,3955
584,8335 772,3104 356,6991 13,8353 334,4988
-284,8558 145,6185 403,7709 -142,6369 -161,4201
-211,813 -222,0954 568,1127 -80,1699 205,0259
-24,1405 -304,9386 -446,6483 168,0749 703,7425
309,6168 688,0856 195,3283 -794,7515 -204,8012
76,3015 -551,8825 -760,1547 598,5854 141,4257
655,089 387,0701 31,3748 271,6262 650,4968
355,4707 -651,8509 237,2012 390,6883 -239,9634
-69,2761 352,8575 403,059 -463,1253 315,5917
724,2213 -70,448 -190,3057 517,5075 143,0939
796,305 -173,5192 690,0334 -112,5304 709,3282
-778,863 -283,2831 -726,8555 -182,8308 -584,7858
455,7711 657,3801 64,0695 632,79 122,0603
-58,6215 143,6745 -718,2116 663,2902 423,0188
-285,4049 -327,7264 -673,4258 -61,033 -51,5887
-150,7728 -374,2009 -409,4065 778,6287 -706,9553
-145,4273 186,4693 -379,914 -136,6706 -190,1766
292,5768 331,3779 382,1291 635,9191 237,0992
-787,6468 518,6203 160,2526 134,3604 -385,3959
784,6013 -365,2674 -59,4699 331,1255 38,9291
-733,7736 735,255 -88,8832 334,72 665,9845
410,1985 413,221 626,4847 753,4834 468,5363
-690,4724 -54,0677 372,9616 -357,961 -673,707
-180,313 -649,5524 563,8643 212,7855 48,9801
-504,2478 -57,0258 -783,809 -329,3575 331,1767
342,471 697,8169 438,2577 219,0933 -232,4236
-343,0595 -207,7527 766,9026 305,3903 -366,7998
89,4755 410,6364 354,178 -677,3462 -438,2222
668,626 728,3414 423,6049 -94,2364 231,8024
-747,8148 396,6951 -708,1867 325,8048 -346,0132
229,9542 -738,6637 -83,9028 -81,0624 42,6139
90,38 343,6486 -364,5801 393,9744 -294,5533
-339,9882 708,2223 -628,9255 -621,1723 530,4871
-344,3067 664,3477 724,023 229,9668 -398,2382
250,6264 -236,6467 -305,783 45,1538 -397,7677
-75,3834 -795,1135 743,1556 -676,0997 459,9428
300,7549 -40,3724 -307,4928 283,941 -477,3081
382,8665 427,0983 405,249 -657,9869 507,4487
-66,9281 -259,6208 299,4382 306,2031 -225,6584
19,8575 -716,7597 45,2538 -248,2538 -374,246
198,0417 -445,5699 331,797 743,8118 -67,8411
-558,0702 -389,986 -205,4928 -135,4176 -68,2101
750,6245 253,8976 708,2622 -389,9 132,8289
-624,4566 557,2027 632,5044 -769,1803 -637,3824
0,0388 -282,2811 -79,5068 -332,0851 -279,0692
87,5403 -160,8305 95,0193 -781,1953 -442,2704
-241,8107 557,5345 189,3795 -520,5875 -744,1274
80,217 483,352 -526,3915 -506,1759 527,5857
277,2549 -525,7891 -365,0303 -193,2059 423,7529
-8,1275 418,3969 105,5485 -709,1149 -136,6919
502,009 -26,9897 386,3316 361,9086 -45,89
-249,4667 -433,5647 760,6637 688,1401 -457,5152
-22,2153 383,6371 340,3051 295,0895 310,4745
-589,2054 424,0469 -551,3138 -421,8988 495,9706
181,3353 -622,3228 764,5134 63,5572 -254,5835
798,7978 -255,456 680,9667 732,8822 337,4968
703,0174 -728,4325 242,0226 163,4905 -449,003
470,1355 282,4568 441,3962 -682,5039 -513,1275
502,6774 -83,5514 -410,4514 99,8438 474,1942
-605,2447 721,0317 460,7812 -148,6117 51,2815
-784,7228 573,2791 310,9024 691,5847 -229,6462
551,4715 -669,7398 -760,9818 28,003 525,4014
-603,1415 130,523 499,0654 378,8117 -443,2071
-292,2282 587,1597 602,0305 -509,7077 657,4281
528,1289 -793,7583 578,0592 725,4259 764,8777
582,9117 -384,1756 -240,2323 155,9864 -227,1956
-622,6117 509,9866 215,3434 -74,8192 -417,2724
-500,2472 -773,7282 684,4093 -182,0698 491,3036
687,8584 530,8079 -178,8327 484,5091 247,5006
769,8618 156,5303 -708,0762 382,4312 -240,5785
122,9536 -730,7341 -798,6058 -776,5272 351,7111
108,3418 -627,519 -384,6561 153,6744 -771,1016
784,461 -47,2901 402,7328 753,0898 -156,6946
754,8504 -538,3436 729,2456 -792,8807 -160,4411
570,3854 267,0267 697,2348 -390,9997 -4,8393
-488,6212 129,4977 763,4319 -539,4186 -221,5283
498,4375 796,0944 591,8388 -42,6863 385,3587
507,6 664,4247 -753,5539 712,5238 -154,7389
-194,5158 -737,2165 369,5978 -284,4874 44,51
675,7338 436,6107 -629,5975 -650,925 -544,6744
-762,425 -790,9794 62,6931 463,76 -552,9762
67,2523 -439,6684 798,3289 -553,2148 -64,5521
574,642 -649,7967 182,3398 -87,0376 410,6119
-664,2024 -434,6706 553,5359 -692,5472 83,2092
-712,2359 132,3519 128,467 -569,5755 622,9728
700,1325 -28,5182 -245,8119 366,9605 199,4463
-152,7582 373,0464 70,1021 492,7978 -129,8678
758,3758 428,7781 202,5491 -153,8354 275,0203
-466,9445 -565,1787 561,9197 613,8449 45,6343
-424,7257 -737,9424 303,2665 113,9052 476,7202
-744,4193 433,1472 -713,7604 -530,1425 -714,5192
788,9471 -417,814 389,4923 -400,8301 704,2363
-366,7054 98,8093 -498,8494 -406,1787 -264,0494
184,2472 -160,7229 670,3697 560,1735 629,5896
-762,2992 -580,3109 234,3334 75,0101 440,517
526,154 741,0248 8,0148 389,8967 -491,3317
-408,6158 -176,8243 -69,6021 -346,2859 -176,5777
-10,4344 323,1482 -623,6462 -284,3553 426,5458
-437,9132 317,777 386,5063 103,2762 -733,1961
363,513 -774,2025 -656,28 -198,9592 76,7259
-63,9785 714,0907 49,4407 531,6181 -587,5535
125,7281 482,4743 41,5043 203,9494 518,2793
-748,9697 -260,5424 381,5341 -421,3671 216,1158
-597,8428 -686,7404 41,165 576,1437 -367,7558
-235,8387 -228,5056 -205,2409 284,0664 129,32
-381,9571 -793,9931 -774,7844 -103,0721 178,0178
788,9285 -43,2551 432,0163 -435,3233 690,488
580,3103 514,4108 478,5797 -616,7192 133,8673
148,3998 490,8541 -28,7479 -406,822 -303,214
247,7716 -241,7294 -45,9606 269,7416 -538,7141
-751,3273 -777,8107 312,2444 -339,7536 -424,1645
-216,2999 -611,9937 406,0534 288,22 226,6078
-21,8211 -661,0661 201,5635 -688,1158 767,1923
-357,925 -225,5892 101,6307 237,2861 9,7066
651,7946 164,5281 235,3936 556,1532 400,5201
-408,9839 549,1392 -394,8679 -729,7167 775,0792
-350,7166 27,9766 -229,2713 -46,7162 207,6194
788,208 -423,3487 247,5644 207,1164 -488,7073
-266,3081 -593,3813 -680,6139 226,5382 -271,8764
-643,3444 249,965 89,1495 -386,4514 -152,3555
-44,5546 -89,8228 781,0971 402,5388 -212,0949
149,778 356,8902 158,6373 -787,8168 300,6848
289,9657 275,2282 -90,7017 -288,0425 222,2664
-193,0695 -152,929 216,8264 340,2651 -122,2382
-460,4662 315,5897 232,3102 565,0856 80,2001
688,7745 732,91 183,1961 -154,9284 780,5428
-232,9981 249,7275 481,6874 273,0416 723,7593
577,6455 793,196 -714,5987 340,2262 258,6125
-231,4537 -354,143 335,3269 335,9248 -634,8668
-158,8959 -528,4141 676,5983 239,2427 449,9564
-381,4458 618,1012 -547,0219 640,748 599,7492
-583,3472 659,183 38,7549 -289,0542 -576,5175
-72,7492 -571,292 478,6872 -317,5544 459,4476
-767,0722 -710,3904 590,0618 -194,4553 -763,2423
531,3743 631,4074 -45,1913 -438,6347 -143,4014
719,537 -580,2081 -743,2296 -789,4611 113,0
-515,6241 510,1745 120,7417 124,6324 159,7616
713,3423 -210,8643 620,8914 -239,2154 -213,3479
-229,469 372,9777 380,4243 -677,1557 483,6673
-207,718 -443,8776 -279,1864 5,9719 -639,0124
733,1932 543,9262 535,4147 148,7992 242,4124
-736,6279 -789,2223 -334,8937 -421,2303 -245,3533
349,9532 -729,8472 -628,7059 521,6993 -626,7495
-106,4826 717,6596 162,548 373,0939 -780,8692
733,2334 73,7081 170,3934 56,827 -57,7802
593,0247 -161,6181 185,5285 -139,4047 790,6227
551,1224 558,529 174,4084 423,6483 -750,0802
-23,1678 -346,284 313,0732 101,6927 203,7822
251,5082 -642,1969 389,2487 663,1832 -136,2261
-330,0852 20,3779 -42,5363 -499,3337 -490,4298
630,5128 -592,094 -305,7255 272,1429 35,2083
63,6791 263,2919 676,5614 -752,932 407,4288
96,4493 -607,3872 -549,9463 -257,8972 -501,3471
443,9201 501,263 447,0234 -41,1101 -645,3167
-561,7824 -102,0814 -204,2332 210,7199 -595,6559
583,4491 43,269 540,6448 -698,9475 -585,605
655,0468 -407,8212 -364,3727 -335,2377 -467,8187
95,9751 550,5727 301,2544 100,5016 -204,3195
121,0776 333,6605 -644,429 674,6468 -528,183
461,0582 -499,8103 -420,9068 -340,5408 697,5395
-193,0944 485,1926 -618,2587 304,2317 90,4258
728,1482 -765,5989 -720,2904 428,3549 -776,9656
340,3357 -65,7689 -43,1313 -94,4326 -133,5024
513,2458 527,0864 687,359 -639,2134 355,5619
-638,6768 172,9367 550,4179 -236,6698 -563,9538
144,3017 144,8508 -645,2918 -76,1469 202,4819
725,8713 458,7562 170,2259 -247,3656 234,6776
639,0849 497,9158 614,4788 -201,9537 117,5832
302,2946 -55,6763 -583,1367 -595,2037 129,4263
589,5659 -330,0667 -378,9957 291,7234 697,9423
-222,5587 19,8584 13,2764 -403,3375 -123,4013
407,5474 681,6888 786,5023 438,8532 -500,3824
416,468 -602,7708 -90,8846 -125,9224 -103,126
-771,5869 -443,0816 21,2277 -449,5843 482,6417
-702,0628 -306,1352 -599,9098 484,2552 436,2081
193,3029 99,8615 -456,2346 -792,098 -343,4659
-340,3301 -615,3438 -34,9215 465,7016 56,6534
690,0714 -13,8684 -559,925 88,0678 14,4323
414,7713 440,7269 161,5774 424,4631 273,4699
730,2354 2,4953 -18,0677 -726,2155 -572,0635
294,0606 665,3452 678,1867 366,0023 98,8706
262,5858 -745,8457 112,8436 -763,2582 417,482
-509,8333 -792,2177 290,12 -205,4174 -696,828
-765,0679 -136,0128 351,7569 15,4453 280,0154
459,2075 419,7568 669,6875 382,4425 347,4255
-259,2316 384,0316 10,3875 -616,7956 -285,1025
-585,5924 -139,3115 -565,0723 -179,2734 648,9491
781,9318 -185,3188 291,3846 -653,5966 -722,5294
725,9341 454,919 759,5175 241,9646 566,6529
668,6888 321,7507 676,5415 -164,297 166,7202
100,321 116,6243 58,9749 371,5402 86,0589
368,1643 -177,6779 593,7085 37,2 -348,8664
364,1356 262,3681 426,2579 -597,1348 -565,194
-108,383 228,7833 191,5088 437,1165 -536,3702
70,2559 -560,9942 594,9128 -634,6914 715,7428
620,7698 437,7397 796,1578 -243,1766 497,5577
23,9744 75,3915 -455,2586 159,1565 163,4957
677,0689 -233,0363 761,412 704,3134 641,6765
-401,636 135,8665 581,4424 650,1903 -669,8366
-200,298 172,5347 373,9615 -722,9741 57,652
-322,8907 440,7656 -462,1589 -456,2002 -415,3713
395,1785 264,9554 -330,7244 -332,2407 70,7911
767,8717 363,5675 -689,3768 -663,3381 -623,4077
761,5267 -605,126 -583,1377 14,775 -16,9177
28,4641 118,3323 88,9341 277,9843 291,4152
523,1483 178,5597 -766,2386 -81,2759 -44,9988
-538,1318 15,4493 -186,7458 -756,8635 -162,787
-197,414 -141,0434 365,1198 -576,1325 -256,636
-367,7271 593,0494 541,8961 -110,1511 577,2626
163,7501 26,8585 -98,3543 -514,3355 -556,6157
634,9689 -360,1843 -290,8212 393,191 -538,453
-755,0276 -762,411 -49,8423 -145,617 -160,8767
-746,3824 486,1881 -762,5323 291,2443 416,6444
-768,9226 -395,1398 -205,9065 -607,2208 -780,6
135,8309 730,2104 -250,4363 356,175 312,2098
434,0514 -565,5928 467,976 -743,4618 -220,6925
544,3 -563,1702 718,8861 734,4203 -566,0881
199,8218 -687,6004 -611,1803 -739,8276 333,7975
718,6124 123,6548 -408,5044 10,9524 -169,8902
-609,8072 -20,5647 561,7765 -335,9025 529,3704
-143,1521 721,5664 -507,0531 -30,1779 -167,2513
183,8931 582,3626 -621,1655 505,0621 345,5806
559,3924 391,2395 -181,3012 -538,5821 55,8183
528,8392 -663,9265 -212,2641 -210,6427 -489,6065
713,3103 287,1811 78,4917 -106,1096 26,2827
722,5349 170,6342 579,4517 -681,0115 -39,6912
-253,3967 760,3171 623,2096 -515,2653 -400,8451
240,4841 436,4248 -691,1343 768,6817 -693,7628
-269,5665 -466,1916 158,1672 740,6767 614,5496
410,9042 617,4613 459,8656 78,5399 268,1453
-56,6946 -482,539 -622,1202 -215,2798 790,7997
456,8293 651,8007 158,8515 -791,2567 23,8956
-452,6837 635,8262 -14,9883 319,2355 91,1819
-625,6438 -485,6628 -173,2134 -459,3278 -484,6614
-315,7413 783,988 284,5008 493,2685 -407,2026
-57,5614 758,837 -158,0058 652,2882 690,0939
-192,5828 -205,5765 336,7356 -517,3757 -230,0454
-50,7058 -131,1255 417,9985 -680,2687 -158,0256
-280,556 464,496 594,6406 -8,0635 -13,7443
735,3632 -531,1024 346,9347 148,5354 -580,0068
-719,919 507,9711 -339,9579 201,0913 486,9381
