Archivo de aceleraci�n parte de la Red Nacional de Aceler�grafos (RENAC) Ecuador

Evento: 201604162358
Fecha del evento UTM (aammdd):                  2019    6   11
Hora del registro UTM (hhmmss): 23   58 45,00
Estaci�n:                                      APED
Componente:                                        N
Frecuencia de muestreo (Hz):            1,000000e+02
Unidades: cm/s^2
_____________________________________________
302,2972 312,6611 282,5824 207,0477 115,8988 49,3591
7,6070 -15,5819 -14,6807 23,2033 100,9631 170,1893
192,1490 146,4371 46,9952 -43,8050 -121,7802 -193,7055
-236,3506 -239,6472 -227,1268 -226,8348 -254,7632 -278,7722
-213,8421 -106,7453 -32,7112 34,2485 113,1203 190,4430
241,6910 265,3946 247,6886 199,8958 159,4478 125,6381
93,9769 57,2698 34,7937 41,8240 45,5046 35,3372
18,4999 -9,4727 -51,2328 -108,6811 -189,4680 -294,3604
-367,4789 -356,6699 -292,2913 -205,0274 -102,7133 5,0323
102,6384 164,9451 190,1888 186,1541 176,0931 174,2384
145,7701 69,7245 -35,9276 -133,8140 -218,6717 -296,3764
-313,0740 -253,8836 -150,2682 -36,4449 64,4218 128,4877
143,0954 157,6471 139,0156 87,3602 41,9898 4,8953
30,5679 27,1280 -18,0891 6,5931 40,9174 43,2272
25,8168 -8,3849 -31,5703 -46,1978 -29,8841 40,4920
95,4720 105,0347 135,2747 192,8978 217,9929 206,7179
161,6890 111,5044 64,2983 -9,8755 -52,1196 -73,6125
-119,8156 -169,0494 -180,5623 -157,4203 -136,7303 -75,4834
19,5660 92,0338 138,8678 118,3329 51,4480 2,5206
-57,5458 -82,6453 -59,2265 -67,6582 -94,7350 -112,0156
-114,7391 -106,6327 -94,5656 -57,5737 6,7355 72,2073
145,2771 248,3878 353,2739 429,8116 457,4237 430,7345
386,2428 342,2071 314,8681 273,6793 209,9973 134,7312
56,1379 32,4667 -1,9828 -49,3529 -65,1953 -72,0787
-60,2684 -51,5303 -38,8440 -23,2215 -20,1070 -47,2504
-111,2181 -186,7564 -231,4157 -223,0534 -214,5451 -232,4088
-256,0267 -264,3972 -234,1932 -167,5751 -76,5946 31,7737
110,4725 138,1720 150,8898 169,4935 191,6595 188,3449
139,1516 59,9824 -19,3842 -81,7369 -117,3752 -123,1213
-112,6907 -86,8477 -65,3647 -71,5217 -84,5838 -76,4820
-31,6145 34,9775 92,3186 123,4147 130,5252 134,8808
142,1175 137,6087 121,7673 105,5483 82,3386 52,1995
43,4137 68,9989 96,3668 95,1294 66,9892 30,4029
11,2910 14,1181 34,7305 65,2220 93,1918 112,7787
107,5183 84,6520 69,6081 64,1730 56,6614 42,0862
28,1247 11,6308 -20,1259 -64,3491 -115,3520 -163,3259
-195,5170 -216,4566 -245,1510 -288,3278 -318,2038 -290,4042
-210,4960 -127,5850 -79,4182 -90,7671 -129,2711 -169,9399
-207,2183 -248,5179 -300,8393 -323,3325 -314,9811 -249,5805
-152,0257 -84,1387 -27,1842 9,0407 18,0032 15,6835
-3,7402 -37,0506 -73,9731 -112,2591 -118,9163 -78,4971
-19,1337 32,0539 71,6025 119,4737 167,4846 201,0113
202,4019 162,0855 112,9994 84,8746 106,1394 164,2078
203,4734 219,6645 224,6536 217,1024 205,2542 187,0714
159,7189 131,5724 121,1752 125,3649 108,4204 62,0713
8,4171 -38,2483 -94,7802 -175,2417 -249,4111 -283,9462
-270,7381 -229,7503 -172,9373 -102,1250 -36,2161 18,5628
62,0425 95,8017 111,7666 86,2128 20,6969 -50,1091
-87,2109 -86,7234 -68,0486 -49,5017 -37,4138 -17,2196
12,5824 41,2066 62,8202 76,4185 81,7879 75,4038
68,2824 70,9518 74,9973 70,0299 54,7986 34,3385
8,3458 -10,2812 10,3699 59,1568 99,8093 121,0868
118,9077 95,9909 59,4028 21,5125 -8,6221 -22,0645
-10,2479 14,0081 37,8883 59,4974 79,8151 94,4976
97,5419 82,7774 55,0653 20,9853 -33,4071 -90,6130
-115,1970 -99,9540 -36,1323 56,2432 130,0250 163,0984
168,5065 176,7922 161,4339 98,5017 27,0702 -34,5021
-101,5375 -182,5370 -244,2391 -265,3498 -271,4681 -272,7560
-246,6985 -192,2809 -143,9140 -93,0823 -9,0718 94,6661
160,7724 167,8126 163,2326 157,2459 138,8135 118,0038
91,5624 48,1692 -18,8869 -101,5339 -173,6890 -204,6310
-169,1884 -79,1290 12,2823 93,3792 163,4706 195,0489
177,0148 105,6590 10,0247 -79,7202 -147,6306 -179,3170
-182,8164 -172,3732 -168,2899 -169,2848 -159,9645 -142,6406
-135,8122 -138,5122 -114,2247 -64,7998 -23,9643 4,8013
33,0100 69,9271 109,4486 124,8142 107,9814 67,2865
6,7831 -57,0251 -108,2812 -133,9845 -128,9144 -109,9476
-76,9958 -21,4878 37,5782 75,4082 87,0716 90,5115
99,8192 107,1298 101,9505 77,1764 37,5296 -0,9430
-34,0083 -65,2297 -92,9391 -102,5721 -76,8850 -25,8307
5,4132 -17,4396 -76,2523 -136,3592 -190,3758 -234,8864
-250,1555 -214,6399 -115,4747 16,1538 129,5770 210,5631
259,9339 293,8725 314,2497 290,2739 239,7144 209,0572
200,4299 187,7085 158,8023 140,0175 152,6813 181,6109
211,9500 232,9950 245,9382 258,3586 248,4913 203,1128
141,8569 86,0316 35,4739 -21,1219 -78,3495 -131,5766
-172,1561 -173,6873 -128,1538 -48,6087 38,1478 114,3151
166,3886 164,5150 124,1977 51,2792 -54,5324 -123,1755
-150,0883 -192,9677 -240,9579 -275,5723 -296,6461 -295,5881
-283,1064 -240,3757 -157,8170 -73,4073 -4,1991 59,4721
103,8286 80,8767 8,0736 -71,2254 -150,7119 -207,4014
-238,8427 -258,4800 -269,2161 -264,3235 -230,5670 -178,4150
-113,3623 -28,9372 75,4081 190,0498 290,3181 359,6047
381,8861 354,3696 298,4551 220,1690 127,4718 47,1229
-18,1840 -82,4518 -132,9816 -154,4573 -135,0805 -59,9360
30,8777 87,5952 113,3841 132,1157 129,8122 67,9443
-21,0291 -97,5840 -150,9363 -167,0445 -166,6101 -152,9388
-119,3842 -104,5927 -107,7505 -79,4283 -14,6846 53,0077
84,2625 88,1251 93,3034 70,3361 15,8374 -24,3095
-32,2897 -13,1688 21,0816 49,2515 78,6759 118,3750
146,6638 159,1302 169,9546 183,0420 183,6656 160,7200
107,2595 29,1032 -39,2182 -85,1663 -120,8243 -154,1789
-177,4246 -167,9520 -125,9783 -75,3629 -26,4779 18,8754
57,3731 96,0007 122,5340 105,7860 48,2944 -18,3346
-71,8077 -110,9588 -150,4614 -191,8403 -214,7157 -212,2707
-182,7625 -135,9538 -97,9445 -52,9031 6,9524 53,2258
75,8965 89,8878 113,4589 120,4702 94,4533 58,4978
24,3178 -4,6533 -20,9472 -5,1130 31,0966 60,9338
95,0553 137,5238 172,0472 194,0610 206,9158 201,1274
168,4469 126,0838 92,8699 66,0707 37,5925 4,7634
-31,7905 -71,3084 -110,5560 -141,6305 -155,2838 -151,9502
-128,5161 -78,2459 -21,1941 25,5614 60,1822 84,0948
96,8901 73,5579 16,2132 -46,0638 -108,3868 -162,2366
-209,1841 -250,5216 -263,3647 -231,0690 -159,5681 -75,7487
-4,4659 30,9083 18,4923 -29,3401 -87,1616 -131,5280
-160,2098 -170,2141 -144,8244 -94,7299 -49,5380 -11,6837
24,7828 59,0178 91,1918 124,0092 146,5295 141,1069
119,7700 95,6005 64,1448 17,6939 -37,5348 -74,9295
-82,6042 -70,0450 -38,0900 10,8789 55,9699 82,0806
94,1198 104,8153 109,4241 100,5769 90,1284 79,4527
63,7419 48,8017 41,9841 47,8996 69,2546 108,3751
148,5860 178,0059 203,5362 220,8773 218,0655 180,7213
103,6365 4,0189 -81,4624 -133,9991 -171,3785 -205,0079
-229,5595 -244,6637 -257,7727 -276,0357 -290,9524 -291,5436
-286,1625 -268,8350 -224,1802 -171,8552 -135,3032 -112,3521
-95,5302 -79,5590 -58,7709 -29,8223 6,5450 51,8739
101,4898 148,5094 194,8468 239,4385 280,8976 314,8200
334,5221 330,2576 299,1272 259,6427 228,4888 207,8251
197,5098 200,0440 207,6394 212,2428 213,7334 213,3296
213,6910 209,6960 191,4339 150,0442 89,3172 17,3604
-63,4338 -146,0925 -218,2954 -266,4414 -296,6986 -317,9175
-330,5308 -334,3970 -333,2191 -331,4852 -300,2719 -243,6355
-200,1523 -166,4751 -135,2266 -110,3794 -105,4147 -127,5853
-148,5203 -147,4154 -121,8626 -67,4973 1,6397 75,7117
155,9209 235,8400 311,1421 365,2380 374,7763 342,1941
295,7179 251,0064 206,3416 169,8464 153,9563 157,7999
171,1243 175,9232 160,6640 141,8900 134,3208 124,6959
100,1984 67,8297 31,0434 -13,8196 -65,7526 -114,4529
-139,8444 -148,4293 -158,4688 -172,1094 -181,9479 -177,9988
-175,5692 -183,5980 -193,0283 -199,7395 -208,6696 -207,9531
-185,1796 -166,5995 -151,7791 -131,3659 -109,6053 -79,6168
-43,6469 -4,7598 25,3189 44,6876 64,5556 75,0592
70,1296 44,0712 6,5350 -12,6652 -22,7894 -25,9643
-19,6487 -17,4128 -15,7365 -24,7134 -43,3612 -63,9556
-95,3600 -135,0104 -172,7556 -193,2365 -193,7997 -178,9712
-141,7244 -97,0479 -63,9475 -42,7538 -25,7426 -3,9172
14,5891 34,0002 63,5499 97,8363 134,6046 170,1176
199,1428 216,7289 224,8857 223,6141 211,2829 191,6114
175,1175 173,8801 179,0855 176,8550 168,0304 152,3962
122,3563 87,8842 67,1330 60,9273 59,3070 56,0842
49,5135 30,5684 3,0068 -23,5392 -41,0893 -48,9695
-67,5235 -94,0803 -104,0954 -102,2948 -118,7670 -155,5949
-179,7436 -169,8475 -149,3053 -149,4414 -157,6749 -151,5430
-138,8685 -136,3505 -139,0370 -128,3415 -108,1797 -86,2903
-49,5012 -14,2550 -4,8545 -12,1552 -24,2431 -31,7699
-48,3404 -73,9617 -79,3023 -75,0702 -73,4544 -60,2382
-28,5427 -0,5828 5,4301 7,9931 11,7079 7,2694
-1,4858 7,6723 41,1296 68,0243 73,4550 69,2130
69,9358 68,2154 53,5626 48,2284 61,0697 77,1535
87,1659 81,8686 48,6592 -6,9462 -51,0603 -66,7503
-73,9113 -84,8583 -79,2005 -37,5097 25,7622 77,5320
101,4329 102,7334 84,6272 43,5791 -8,1421 -51,8191
-87,2077 -126,1885 -166,6608 -188,7837 -193,8007 -196,3989
-198,3446 -195,3553 -170,9830 -118,1137 -47,4780 29,3706
101,7402 160,5972 191,9294 187,0106 123,2295 -3,2206
-136,0640 -208,5291 -213,0171 -191,0583 -136,5975 -45,7837
36,6091 82,3895 109,6123 138,2508 141,0842 97,4694
14,7440 -91,2938 -195,1498 -263,6451 -284,8343 -285,5787
-269,9220 -205,7074 -97,3535 25,9712 144,1060 242,5673
314,2908 352,6390 366,8357 356,2077 323,6958 287,8701
242,6277 182,2568 117,6600 53,7843 -4,2246 -30,6462
7,6299 99,9279 178,5645 191,4482 160,7567 131,9973
92,9543 33,7487 -14,0189 -29,4530 -13,9405 6,5755
18,3939 44,7965 79,4804 86,2413 74,8878 49,7388
-0,1512 -63,2789 -117,6686 -138,3215 -152,7057 -186,2558
-198,3752 -159,2962 -107,4047 -75,6714 -38,7093 7,1657
38,3367 39,7498 4,1746 -52,9033 -110,3066 -146,5477
-143,9613 -118,1868 -85,3522 -25,6824 56,0508 125,7781
173,6799 211,7208 226,5988 164,7319 63,0072 -14,9337
-86,1624 -149,0801 -178,2081 -113,6546 36,9155 173,7151
251,0170 287,4285 329,1102 366,9005 357,1873 298,5088
206,7804 113,3991 52,6379 25,3593 14,0942 12,7757
26,2884 37,2750 28,9217 19,2752 9,3457 -16,2855
-48,1468 -74,5503 -98,7099 -99,1929 -50,3989 6,2005
11,3915 -10,0059 1,8792 9,9838 -46,6508 -136,1109
-211,5005 -273,2908 -328,0536 -363,4629 -369,9912 -333,5671
-267,7953 -201,3294 -124,0356 -28,3085 64,9475 96,1626
84,2928 104,5546 96,9304 25,9162 -37,1764 -73,2030
-103,1123 -134,7294 -136,5831 -83,7291 -14,8941 39,2108
83,9206 124,8002 165,4789 201,3055 217,1721 212,8626
183,6400 129,9029 93,1372 92,6857 116,1658 154,9330
199,5563 237,7097 251,8776 248,1656 234,0013 185,1396
91,0419 -24,0377 -151,9172 -299,9431 -426,1022 -492,7744
-491,0216 -398,4829 -263,0910 -150,0742 -60,3879 0,6409
38,1104 41,3872 -12,8474 -97,3581 -172,8207 -217,0240
-248,1120 -281,9460 -288,9043 -265,0043 -212,7433 -145,0329
-89,4978 -39,8719 -25,7699 -37,8280 -34,8576 -20,1707
10,1586 51,3374 130,1417 229,4448 290,6836 313,9852
309,3295 297,0803 298,8025 312,6433 318,3497 307,3081
285,1420 247,4851 202,0535 162,1426 132,3703 118,8630
121,8433 140,8146 180,0334 219,2440 218,9547 185,3964
164,7074 153,8326 111,2848 36,8163 -37,7253 -91,9428
-128,6517 -176,3444 -237,0101 -273,8235 -285,8168 -300,2379
-313,5361 -306,8068 -296,8484 -309,5437 -334,3801 -343,8049
-333,3320 -333,5870 -342,3675 -295,5309 -184,1886 -85,2685
-40,0450 -4,4753 68,3945 139,4367 167,1713 188,1460
219,8586 227,9127 203,2710 186,8924 191,1425 186,9159
165,1175 135,0505 120,5681 115,6015 101,7266 89,9460
79,5848 69,6274 72,3941 102,0113 147,1131 176,4519
187,6233 196,8796 200,5646 175,5931 115,2068 45,0415
0,9148 -18,3557 -45,2819 -91,0560 -142,0932 -168,9762
-172,3738 -180,2710 -184,5662 -161,4791 -121,1203 -83,2876
-47,3403 -33,4004 -48,1189 -54,2742 -37,0539 -35,5886
-76,7809 -108,9639 -108,7828 -126,4600 -160,7266 -161,5719
-124,0817 -83,6662 -40,7723 21,6390 75,3077 94,0194
89,7477 85,8959 65,3331 -0,2270 -59,7265 -61,2531
-30,3102 -4,7601 19,7726 59,3617 98,1019 120,1526
131,3285 142,0366 145,5270 125,7527 85,4516 32,3814
-16,0414 -35,6219 -33,0787 -39,0465 -55,4890 -58,3251
-49,1391 -37,7947 -23,5674 -7,6061 10,6217 12,0690
-16,6533 -48,1947 -68,9062 -93,1919 -134,9854 -185,4845
-215,3154 -220,7893 -206,5827 -171,8394 -131,2220 -91,9510
-63,6360 -54,0066 -42,6685 -30,5076 -39,2151 -61,7083
-78,6474 -86,5474 -90,1450 -84,0970 -63,3043 -25,2139
32,3336 85,6030 112,5329 129,4566 148,6686 150,7107
121,3890 86,2167 73,2925 69,2416 51,0471 22,5140
2,1900 -4,0157 -0,5668 9,8034 27,0876 50,0612
69,7940 81,2168 82,0324 71,8001 52,3611 18,6010
-13,0891 -28,2870 -44,6521 -74,3982 -109,4344 -133,2614
-139,7609 -134,3366 -119,9785 -85,3244 -27,7139 34,2594
90,0559 135,1901 159,7741 157,0489 132,6586 95,1720
54,4672 23,3070 2,3134 -19,9797 -43,4345 -48,7084
-33,0238 -14,9303 2,6847 30,8637 54,1193 53,1812
46,3536 50,2054 59,1057 58,7182 48,7391 45,2001
44,8297 44,8351 51,7446 52,9018 47,4017 53,3073
65,6133 62,5041 50,9326 57,3429 69,0523 70,4879
78,2005 95,5874 107,3671 100,7180 85,4903 72,1885
52,4349 23,2926 -2,1899 -8,8760 -0,9490 13,1450
26,4901 30,8429 34,9659 56,4390 86,3203 106,0865
120,0768 130,0523 127,4063 113,5899 104,8924 91,0877
65,1519 52,1285 54,8871 59,1877 43,2877 21,5929
37,0513 75,8429 96,8365 92,9018 80,3093 58,0711
20,2303 -20,3646 -50,0008 -68,1727 -79,3062 -74,8813
-53,1784 -30,0580 -15,3971 -3,6400 -2,8505 -18,6901
-31,7567 -43,0903 -62,7925 -83,0733 -88,7608 -75,7528
-61,9814 -45,6002 -4,9774 42,6244 69,1613 83,3553
106,5857 131,0598 123,0454 85,2289 55,4143 43,6463
32,0631 20,4511 23,7432 29,1874 23,0321 25,2698
44,6593 64,6390 73,4628 70,6934 60,7675 39,5143
4,0221 -30,9808 -54,3311 -76,7657 -105,7855 -131,4312
-147,0806 -158,3367 -175,0379 -196,7705 -213,3662 -209,0891
-188,6731 -171,7313 -157,4688 -146,8022 -147,2888 -157,9240
-177,1476 -203,1366 -226,3598 -238,6883 -237,9124 -226,0246
-203,2655 -167,6092 -128,7672 -96,6194 -67,6906 -39,7820
-23,1241 -19,7464 -16,9698 -11,1065 -9,6790 -16,6147
-21,4875 -15,2503 -5,8985 1,5419 11,0767 23,2898
31,4367 33,7952 35,3570 35,5616 35,5805 38,5662
43,8157 47,5422 46,0904 42,8109 41,8177 41,1878
41,5861 48,5687 63,6819 81,4492 100,1430 114,6677
114,9732 100,8982 72,2984 39,7125 16,9841 7,9774
9,7321 5,5288 -8,5264 -25,3438 -37,8634 -32,1858
-5,8732 28,5177 57,9827 77,6389 85,2874 71,9207
41,0066 11,7021 -14,0481 -41,1095 -67,4068 -90,5687
-100,7514 -92,7361 -63,0783 -16,3002 18,3566 25,2427
25,3905 38,3904 56,2226 69,0964 75,6553 75,4445
66,8091 43,0524 6,9798 -29,9030 -59,3716 -76,9578
-84,2062 -83,5068 -71,4946 -47,8190 -27,6455 -32,2408
-66,3470 -110,9071 -139,2240 -147,3024 -149,2742 -151,7751
-146,0064 -124,4532 -96,1499 -73,7351 -63,8101 -63,9326
-72,4040 -88,2724 -105,3007 -117,7942 -115,3240 -83,7925
-31,6757 16,1342 55,5079 95,5486 133,4777 157,3173
167,9263 176,7743 184,4436 186,4722 186,7922 191,3189
203,1491 217,5341 220,7496 206,7944 181,8121 155,2193
132,0880 108,3826 77,3505 52,1726 47,2646 41,3932
20,8042 5,4702 5,2782 9,0029 13,6333 25,5581
39,7530 48,8165 53,9344 53,2540 40,5587 21,7685
14,4165 21,9163 24,2892 6,4093 -21,7535 -53,3101
-85,7833 -103,4109 -106,2416 -92,9371 -51,5537 2,5665
43,9490 54,0425 29,4234 -23,7785 -90,7012 -145,2963
-180,0766 -202,7537 -228,1542 -249,8264 -246,5064 -213,9999
-175,8860 -161,0008 -153,4117 -145,3414 -141,2157 -145,3937
-161,5541 -173,3032 -180,7345 -179,0763 -166,7108 -143,1983
-104,8808 -65,2421 -29,2137 1,3426 25,2111 33,9781
16,8677 -19,7898 -59,9953 -92,3856 -113,2314 -118,0997
-104,3951 -74,6102 -39,5677 -5,4056 30,9040 63,9837
85,1297 92,4979 97,1382 108,8557 119,0547 125,5839
137,2221 158,0977 183,3504 205,3011 223,1729 233,1087
229,3183 214,4474 202,0991 207,3468 228,2792 250,3623
267,9809 285,2589 301,0895 306,6382 295,6417 270,7116
245,1083 230,9972 224,1363 211,8925 185,7314 140,6728
82,3206 25,1065 -26,7102 -73,3674 -115,9684 -155,2538
-188,6255 -201,5011 -192,8378 -185,5218 -185,8705 -194,0454
-196,4588 -197,7529 -196,4426 -191,1210 -220,7517 -255,3392
-270,0757 -271,7538 -249,9770 -221,1438 -179,7414 -129,1188
-96,6114 -86,5161 -91,5998 -103,4092 -119,0785 -133,7763
-138,9609 -143,5030 -159,2777 -174,6226 -185,3623 -187,7955
-159,2191 -105,2089 -43,2771 19,7930 76,9638 127,9847
164,7215 179,3823 170,1396 137,3915 88,6731 29,1052
-28,3585 -74,2993 -108,9706 -126,7550 -123,3511 -100,6497
-71,7002 -44,6226 -14,6457 20,3896 52,4491 73,4220
88,7461 103,5079 109,5397 93,7532 60,9232 36,0436
38,1118 62,5877 102,4048 150,0138 189,0937 218,0216
242,7696 256,5229 210,3920 85,6658 -36,5198 -78,9829
-52,0233 -7,4298 50,5052 122,7153 177,3249 195,8771
186,2405 173,1045 150,1039 107,7075 63,4628 23,1968
-13,1750 -42,3218 -58,0812 -45,9086 -1,4187 46,7886
80,1144 111,4628 139,6328 146,3531 121,1355 74,5620
33,3093 21,3457 35,2243 48,8055 53,1394 58,4169
68,0778 70,1524 50,5881 12,0633 -34,5624 -84,6443
-132,8634 -176,1448 -212,3823 -234,8755 -239,8114 -227,3523
-202,6718 -169,0568 -138,9691 -117,0824 -95,4579 -86,2304
-84,6398 -83,2096 -86,8234 -95,6093 -111,8653 -115,6468
-102,6540 -86,0493 -65,6171 -37,3814 8,0142 54,6246
79,3213 88,4469 93,2512 93,6279 85,7388 78,5850
87,3474 109,4522 139,5561 177,5546 216,3615 238,6520
225,6502 177,0274 110,0074 46,4642 -7,8831 -56,8935
-94,2810 -103,3174 -74,0317 -28,6596 0,9956 -1,2971
-27,4574 -56,4762 -80,2077 -92,5696 -96,5114 -103,0930
-107,4918 -103,7166 -95,6337 -91,4854 -82,0119 -44,7497
12,2624 57,0290 67,4614 54,6660 34,5583 1,2947
-45,3184 -89,7398 -112,5322 -107,4746 -71,2155 -13,5382
32,9136 51,4938 53,5233 51,7578 37,8288 11,2071
-9,5017 -17,9956 -17,3900 -10,2804 0,2196 1,0532
-4,4433 2,6420 8,9234 6,1144 1,0820 -6,4214
-20,0864 -47,3623 -75,7206 -86,4207 -78,6504 -62,5612
-47,9085 -39,2344 -38,4116 -37,8699 -31,1442 -26,3525
-24,6231 -21,9357 -19,4808 -16,3311 -10,2813 -1,8108
0,6918 -3,3429 -6,0105 -3,2519 0,6251 -1,9136
-10,2894 -20,6163 -28,7822 -33,8938 -33,2576 -27,0212
-16,5195 -0,8285 13,8269 25,1875 35,4568 46,2920
54,8832 61,1790 69,0529 79,7682 88,2684 84,5221
71,0499 44,3535 12,1254 -11,0798 -21,4364 -6,1421
28,2813 66,3474 95,2933 107,4253 105,6527 102,4453
105,1831 97,8473 72,6964 39,9132 11,1196 -12,7930
-35,4025 -48,1798 -44,2938 -35,4863 -26,9987 -14,8225
-5,9096 -7,4425 -13,0039 -11,9765 -6,1619 1,6642
11,3909 18,0490 16,4791 7,1300 -3,7241 -11,3150
-15,2163 -16,2545 -19,5980 -32,7160 -55,8400 -84,4308
-110,8894 -128,4629 -138,1239 -143,4905 -138,5781 -116,8482
-88,7999 -64,7305 -48,0266 -38,3053 -28,1496 -16,4771
-5,4058 5,7421 14,5028 16,5836 11,1683 1,7984
-4,0639 1,0252 10,5212 15,2282 18,4627 22,7677
28,1407 34,6069 40,5413 47,3860 56,5576 66,9917
76,9546 83,0891 81,2182 67,4216 44,4859 21,1410
2,1914 -7,5480 -4,7020 6,1981 18,1022 27,3206
33,8390 37,3492 37,5908 38,1756 43,0196 50,6105
58,3284 65,7706 70,9579 72,2620 71,0859 70,9282
74,9007 79,4960 82,2942 84,6040 82,1464 73,0929
58,4528 37,1924 8,6629 -25,3342 -58,8402 -86,1729
-102,7578 -101,2663 -82,7060 -60,7679 -41,0152 -22,9704
-12,4226 -14,0655 -21,8664 -29,9836 -39,7734 -48,2889
-54,2729 -55,0209 -52,5291 -54,6884 -55,8004 -50,9231
-45,7033 -45,6330 -48,2141 -51,2530 -57,2036 -62,3405
-62,4306 -60,3479 -62,6064 -67,8784 -67,2701 -59,3737
-47,4670 -32,2844 -17,0197 -4,5795 7,6211 18,2526
22,0575 15,3841 -3,4538 -27,9676 -48,7242 -61,2591
-65,1514 -59,8036 -45,5249 -25,6956 -1,5118 24,4088
47,7095 67,7983 84,4877 96,3485 102,6389 105,3642
104,8541 95,5699 76,1353 52,5390 29,4005 9,0918
-6,3071 -13,0310 -12,4407 -14,8154 -25,2315 -41,7209
-61,5691 -84,2984 -108,8662 -128,2710 -136,7920 -130,1906
-103,2860 -65,2785 -33,8417 -14,9298 -7,9491 -10,7915
-20,2343 -31,5742 -38,2297 -36,0650 -21,0986 6,9064
41,1541 75,8478 109,2466 141,1241 167,4889 180,4816
177,1904 162,2889 141,1259 117,6440 96,6270 79,4878
63,5040 48,0438 36,3299 27,7765 20,9517 18,1670
19,2556 20,7372 18,4247 15,3651 14,1728 10,3859
4,2082 -1,4208 -5,7448 -12,5417 -24,5160 -34,5573
-38,2630 -36,3948 -27,6441 -11,3971 8,9449 28,8679
49,3037 68,7301 84,1515 91,4225 90,7619 90,0616
86,0044 78,3847 73,2803 73,2938 79,2994 85,4853
